# This file was created 2017-06-19.00:05:08
# Command line:./DensNearOdOH.exe 10frames.trr 1stframe.gro H2O.mol out log
@    title "axial Density density of OW w/r Od and OH atoms."
@    xaxis  label "zdiff (nm)"
@    yaxis  label "Density (1/nm^3)"
@TYPE xy
@ view 0.15, 0.15, 0.75, 0.85
@ legend on
@ legend box on
@ legend loctype view
@ legend 0.78, 0.8
@ legend length 2
@ s0 legend "near Od"
@ s1 legend "near OH"
          0.000000          7.441087          1.240181
          0.010000         10.334844          0.826788
          0.020000          5.374118          1.653575
          0.030000          6.200906          1.653575
          0.040000          6.200906          1.240181
          0.050000         10.748237          1.653575
          0.060000         11.575025          3.720544
          0.070000          9.921451          3.720544
          0.080000         11.988420          8.267876
          0.090000         15.295568          7.441087
          0.100000         11.988420          9.094663
          0.110000         19.842901          9.508056
          0.120000         11.161632         16.535751
          0.130000         17.362537         15.295568
          0.140000         12.815206         14.055387
          0.150000         16.122356         14.055387
          0.160000         15.295568         21.909870
          0.170000         11.161632         14.882174
          0.180000         17.362537         16.122356
          0.190000         18.189325         14.055387
          0.200000         16.122356         17.775932
          0.210000         14.882174         17.775932
          0.220000         10.748237         16.949144
          0.230000         11.161632         26.457201
          0.240000          9.921451         27.283987
          0.250000          5.374118         27.283987
          0.260000          4.960725         28.110775
          0.270000          4.960725         31.004532
          0.280000          2.480363         29.350956
          0.290000          4.960725         27.283987
          0.300000          3.720544         28.524170
          0.310000          7.027694         25.630411
          0.320000          5.374118         19.016111
          0.330000          7.441087         23.150049
          0.340000          5.374118         22.736656
          0.350000          6.614300         28.937563
          0.360000         10.334844         21.083080
          0.370000          7.854481         19.429506
          0.380000          9.094663         22.323263
          0.390000          9.094663         16.535751
          0.400000          8.681269         13.228601
          0.410000         10.748237         20.256294
          0.420000          8.267876         19.016111
          0.430000          8.681269         18.602718
          0.440000         11.161632         23.976839
          0.450000          9.094663         23.563442
          0.460000         10.748237         25.217018
          0.470000          8.681269         23.150049
          0.480000          7.854481         22.736656
          0.490000          7.027694         20.669687
          0.500000          5.374118         21.083080
          0.510000          7.854481         24.803625
          0.520000          5.787512         22.736656
          0.530000          5.787512         27.283987
          0.540000          8.267876         19.842901
          0.550000          5.374118         19.842901
          0.560000          9.508056         17.362537
          0.570000          7.027694         18.189325
          0.580000          9.094663         22.323263
          0.590000          8.681269         21.496473
          0.600000          9.508056         21.083080
          0.610000         10.748237         27.283987
          0.620000         12.401813         26.043806
          0.630000          7.854481         27.697380
          0.640000          8.681269         25.630411
          0.650000          9.508056         24.803625
          0.660000          7.027694         25.630411
          0.670000          6.200906         24.803625
          0.680000          5.374118         21.083080
          0.690000          6.614300         25.217018
          0.700000          7.441087         27.697380
          0.710000          6.614300         21.909870
          0.720000          6.614300         28.110775
          0.730000          7.027694         22.736656
          0.740000          5.374118         21.909870
          0.750000          5.374118         21.496473
          0.760000          7.441087         20.256294
          0.770000          7.027694         24.803625
          0.780000          8.267876         24.390232
          0.790000          6.614300         21.909870
          0.800000          7.027694         21.909870
          0.810000          5.374118         24.803625
          0.820000          9.921451         23.976839
          0.830000          5.787512         22.736656
          0.840000          5.787512         23.150049
          0.850000          5.787512         21.083080
          0.860000          5.787512         21.496473
          0.870000          9.921451         15.295568
          0.880000          4.133938         22.736656
          0.890000          9.508056         21.083080
          0.900000          8.267876         20.669687
          0.910000          4.133938         26.457201
          0.920000          9.921451         23.976839
          0.930000          9.094663         28.524170
          0.940000          9.094663         27.283987
          0.950000          8.267876         21.909870
          0.960000          9.094663         22.323263
          0.970000         10.748237         32.658104
          0.980000          7.027694         20.669687
          0.990000          7.027694         31.831318
          1.000000          3.720544         27.283987
          1.010000         10.334844         25.217018
          1.020000          8.267876         26.043806
          1.030000          7.854481         19.842901
          1.040000          7.441087         20.669687
          1.050000          7.027694         20.669687
          1.060000          8.267876         20.256294
          1.070000          9.921451         19.842901
          1.080000          6.614300         20.669687
          1.090000          7.027694         19.842901
          1.100000          8.681269         19.429506
          1.110000          7.441087         21.909870
          1.120000          7.027694         17.362537
          1.130000          7.441087         25.217018
          1.140000          5.787512         23.976839
          1.150000          4.547331         19.016111
          1.160000          7.027694         21.083080
          1.170000          7.854481         22.736656
          1.180000          6.200906         23.563442
          1.190000          5.787512         19.429506
          1.200000          8.267876         26.457201
          1.210000          6.614300         24.803625
          1.220000         13.641994         20.256294
          1.230000         10.334844         24.390232
          1.240000         11.161632         31.004532
          1.250000          7.854481         21.083080
          1.260000          7.854481         23.976839
          1.270000          7.854481         22.736656
          1.280000          9.094663         24.390232
          1.290000          7.441087         23.976839
          1.300000          5.787512         27.283987
          1.310000          6.614300         21.083080
          1.320000          8.681269         23.976839
          1.330000          8.267876         24.390232
          1.340000          8.681269         25.217018
          1.350000          7.854481         24.803625
          1.360000          7.854481         23.150049
          1.370000          6.614300         28.937563
          1.380000          7.854481         22.323263
          1.390000         11.575025         20.669687
          1.400000          7.441087         21.496473
          1.410000          7.854481         22.736656
          1.420000          9.094663         18.602718
          1.430000          4.960725         11.161632
          1.440000         10.334844         17.362537
          1.450000          8.267876         22.736656
          1.460000          9.094663         15.708962
          1.470000          6.200906         23.976839
          1.480000         11.575025         20.256294
          1.490000          9.094663         16.122356
          1.500000          8.267876         19.842901
          1.510000          7.854481         19.016111
          1.520000          7.854481         16.122356
          1.530000          5.374118         17.775932
          1.540000          4.960725         21.909870
          1.550000          6.614300         24.390232
          1.560000          6.614300         34.725075
          1.570000          4.547331         36.378651
          1.580000          3.307150         20.669687
          1.590000          6.200906         28.937563
          1.600000          7.854481         17.775932
          1.610000          5.787512         28.110775
          1.620000          9.508056         24.803625
          1.630000          9.921451         28.110775
          1.640000          8.267876         18.602718
          1.650000          6.200906         24.390232
          1.660000          7.027694         20.669687
          1.670000          6.614300         21.496473
          1.680000         10.748237         22.736656
          1.690000          6.614300         20.256294
          1.700000          9.921451         25.217018
          1.710000          6.614300         26.870594
          1.720000         12.401813         18.602718
          1.730000         11.575025         31.417925
          1.740000         15.295568         23.150049
          1.750000         10.748237         24.803625
          1.760000         11.161632         21.496473
          1.770000         10.748237         21.083080
          1.780000          8.267876         19.842901
          1.790000         11.575025         18.189325
          1.800000          9.921451         15.295568
          1.810000          7.854481         18.189325
          1.820000          4.547331         22.323263
          1.830000         10.334844         18.602718
          1.840000          7.854481         24.390232
          1.850000          7.441087         19.016111
          1.860000          5.787512         25.630411
          1.870000          4.133938         22.323263
          1.880000          3.720544         20.256294
          1.890000          5.374118         23.976839
          1.900000          7.441087         20.256294
          1.910000          6.614300         19.016111
          1.920000          6.614300         22.736656
          1.930000          6.200906         28.110775
          1.940000          7.441087         23.976839
          1.950000          8.681269         30.591137
          1.960000          6.200906         25.630411
          1.970000          9.094663         25.217018
          1.980000          6.614300         29.350956
          1.990000          8.681269         32.658104
          2.000000          9.094663         27.697380
          2.010000         11.575025         23.563442
          2.020000         10.334844         22.323263
          2.030000          9.921451         29.350956
          2.040000         10.334844         21.083080
          2.050000          5.374118         21.083080
          2.060000          7.854481         20.669687
          2.070000          4.960725         19.842901
          2.080000          8.267876         23.563442
          2.090000         10.334844         22.323263
          2.100000          6.200906         17.362537
          2.110000          6.614300         20.669687
          2.120000          7.854481         17.775932
          2.130000         11.988420         17.362537
          2.140000          8.267876         22.736656
          2.150000          8.681269         19.429506
          2.160000         11.575025         18.602718
          2.170000          8.681269         32.658104
          2.180000          8.267876         21.496473
          2.190000         10.334844         26.457201
          2.200000          7.441087         27.697380
          2.210000          8.681269         28.937563
          2.220000         13.228601         23.150049
          2.230000         13.641994         26.043806
          2.240000         10.334844         28.937563
          2.250000          7.441087         27.697380
          2.260000          6.200906         21.909870
          2.270000          5.374118         21.083080
          2.280000          8.681269         23.563442
          2.290000          6.200906         23.150049
          2.300000          6.614300         26.457201
          2.310000          5.787512         27.697380
          2.320000          3.720544         21.909870
          2.330000          6.614300         23.976839
          2.340000          4.133938         23.563442
          2.350000         10.748237         20.669687
          2.360000          6.200906         26.457201
          2.370000          7.027694         23.976839
          2.380000          3.720544         21.496473
          2.390000          6.200906         26.043806
          2.400000          6.200906         25.630411
          2.410000          6.200906         22.323263
          2.420000          8.267876         28.937563
          2.430000          8.681269         19.429506
          2.440000          4.960725         24.390232
          2.450000          9.094663         25.630411
          2.460000          8.267876         20.669687
          2.470000          9.508056         25.630411
          2.480000         12.401813         19.842901
          2.490000          9.921451         21.496473
          2.500000         13.641994         25.630411
          2.510000         15.295568         20.669687
          2.520000          7.854481         18.602718
          2.530000          8.681269         21.909870
          2.540000         11.575025         21.909870
          2.550000          9.508056         20.256294
          2.560000          9.094663         17.362537
          2.570000          7.027694         27.283987
          2.580000          8.267876         20.669687
          2.590000          6.614300         17.362537
          2.600000         10.748237         21.909870
          2.610000          9.921451         22.736656
          2.620000          8.681269         21.909870
          2.630000          6.200906         22.736656
          2.640000          5.374118         25.630411
          2.650000          8.681269         21.496473
          2.660000          7.441087         31.004532
          2.670000          7.027694         19.842901
          2.680000          4.133938         24.390232
          2.690000          9.094663         25.217018
          2.700000          6.614300         22.323263
          2.710000          7.854481         23.150049
          2.720000          8.681269         27.697380
          2.730000          9.094663         11.161632
          2.740000          8.267876         18.189325
          2.750000          9.921451         20.669687
          2.760000          7.854481         21.909870
          2.770000          9.921451         24.390232
          2.780000          7.441087         19.016111
          2.790000          7.441087         23.150049
          2.800000          7.854481         23.150049
          2.810000          9.508056         21.496473
          2.820000          7.027694         21.909870
          2.830000          4.547331         22.323263
          2.840000          5.374118         30.177744
          2.850000         10.748237         22.736656
          2.860000          7.027694         23.150049
          2.870000          8.267876         23.976839
          2.880000          5.787512         19.429506
          2.890000         11.575025         23.150049
          2.900000          9.921451         25.217018
          2.910000         11.161632         21.083080
          2.920000          8.267876         21.909870
          2.930000         10.334844         25.217018
          2.940000          8.681269         27.283987
          2.950000          9.094663         25.217018
          2.960000         11.988420         21.083080
          2.970000         10.334844         22.736656
          2.980000         11.161632         28.110775
          2.990000          7.854481         21.083080
